Voltage, ChA, Run #4
Time ( s )	Voltage ( V )
0,0000	0,044
0,0250	0,042
0,0500	0,045
0,0750	0,041
0,1000	0,042
0,1250	0,042
0,1500	0,043
0,1750	0,040
0,2000	0,041
0,2250	0,040
0,2500	0,041
0,2750	0,041
0,3000	0,042
0,3250	0,040
0,3500	0,042
0,3750	0,042
0,4000	0,042
0,4250	0,042
0,4500	0,042
0,4750	0,040
0,5000	0,040
0,5250	0,041
0,5500	0,043
0,5750	0,041
0,6000	0,042
0,6250	0,040
0,6500	0,041
0,6750	0,040
0,7000	0,039
0,7250	0,038
0,7500	0,042
0,7750	0,040
0,8000	0,040
0,8250	0,041
0,8500	0,043
0,8750	0,040
0,9000	0,042
0,9250	0,043
0,9500	0,043
0,9750	0,042
1,0000	0,042
1,0250	0,040
1,0500	0,042
1,0750	0,042
1,1000	0,042
1,1250	0,039
1,1500	0,044
1,1750	0,041
1,2000	0,043
1,2250	0,041
1,2500	0,043
1,2750	0,040
1,3000	0,043
1,3250	0,041
1,3500	0,042
1,3750	0,042
1,4000	0,042
1,4250	0,038
1,4500	0,040
1,4750	0,040
1,5000	0,042
1,5250	0,041
1,5500	0,042
1,5750	0,040
1,6000	0,042
1,6250	0,042
1,6500	0,043
1,6750	0,041
1,7000	0,043
1,7250	0,040
1,7500	0,042
1,7750	0,041
1,8000	0,042
1,8250	0,039
1,8500	0,042
1,8750	0,041
1,9000	0,042
1,9250	0,042
1,9500	0,045
1,9750	0,041
2,0000	0,042
2,0250	0,041
2,0500	0,040
2,0750	0,039
2,1000	0,043
2,1250	0,040
2,1500	0,043
2,1750	0,043
2,2000	0,039
2,2250	0,040
2,2500	0,043
2,2750	0,040
2,3000	0,043
2,3250	0,043
2,3500	0,042
2,3750	0,042
2,4000	0,041
2,4250	0,040
2,4500	0,042
2,4750	0,042
2,5000	0,041
2,5250	0,042
2,5500	0,042
2,5750	0,040
2,6000	0,043
2,6250	0,042
2,6500	0,041
2,6750	0,042
2,7000	0,041
2,7250	0,039
2,7500	0,043
2,7750	0,041
2,8000	0,042
2,8250	0,040
2,8500	0,044
2,8750	0,041
2,9000	0,041
2,9250	0,040
2,9500	0,042
2,9750	0,042
3,0000	0,040
3,0250	0,040
3,0500	0,044
3,0750	0,041
3,1000	0,041
3,1250	0,040
3,1500	0,043
3,1750	0,042
3,2000	0,043
3,2250	0,041
3,2500	0,044
3,2750	0,042
3,3000	0,041
3,3250	0,040
3,3500	0,044
3,3750	0,042
3,4000	0,042
3,4250	0,040
3,4500	0,042
3,4750	0,041
3,5000	0,042
3,5250	0,042
3,5500	0,041
3,5750	0,038
3,6000	0,044
3,6250	0,042
3,6500	0,041
3,6750	0,042
3,7000	0,042
3,7250	0,038
3,7500	0,042
3,7750	0,040
3,8000	0,042
3,8250	0,041
3,8500	0,042
3,8750	0,040
3,9000	0,042
3,9250	0,040
3,9500	0,044
3,9750	0,041
4,0000	0,041
4,0250	0,044
4,0500	0,043
4,0750	0,040
4,1000	0,043
4,1250	0,042
4,1500	0,043
4,1750	0,043
4,2000	0,043
4,2250	0,040
4,2500	0,043
4,2750	0,040
4,3000	0,042
4,3250	0,040
4,3500	0,042
4,3750	0,042
4,4000	0,044
4,4250	0,043
4,4500	0,044
4,4750	0,042
4,5000	0,042
4,5250	0,040
4,5500	0,042
4,5750	0,042
4,6000	0,043
4,6250	0,042
4,6500	0,045
4,6750	0,041
4,7000	0,042
4,7250	0,042
4,7500	0,040
4,7750	0,040
4,8000	0,043
4,8250	0,040
4,8500	0,042
4,8750	0,040
4,9000	0,044
4,9250	0,043
4,9500	0,041
4,9750	0,040
5,0000	0,038
5,0250	0,040
5,0500	0,042
5,0750	0,040
5,1000	0,040
5,1250	0,040
5,1500	0,040
5,1750	0,043
5,2000	0,039
5,2250	0,042
5,2500	0,042
5,2750	0,038
5,3000	0,040
5,3250	0,039
5,3500	0,039
5,3750	0,041
5,4000	0,040
5,4250	0,042
5,4500	0,042
5,4750	0,041
5,5000	0,040
5,5250	0,040
5,5500	0,041
5,5750	0,040
5,6000	0,040
5,6250	0,040
5,6500	0,038
5,6750	0,042
5,7000	0,041
5,7250	0,039
5,7500	0,041
5,7750	0,043
5,8000	0,040
5,8250	0,043
5,8500	0,040
5,8750	0,041
5,9000	0,040
5,9250	0,041
5,9500	0,040
5,9750	0,044
6,0000	0,040
6,0250	0,042
6,0500	0,040
6,0750	0,041
6,1000	0,040
6,1250	0,043
6,1500	0,040
6,1750	0,042
6,2000	0,040
6,2250	0,040
6,2500	0,040
6,2750	0,042
6,3000	0,040
6,3250	0,043
6,3500	0,043
6,3750	0,043
6,4000	0,042
6,4250	0,044
6,4500	0,044
6,4750	0,043
6,5000	0,045
6,5250	0,043
6,5500	0,043
6,5750	0,045
6,6000	0,044
6,6250	0,045
6,6500	0,045
6,6750	0,048
6,7000	0,048
6,7250	0,044
6,7500	0,044
6,7750	0,047
6,8000	0,045
6,8250	0,048
6,8500	0,046
6,8750	0,048
6,9000	0,046
6,9250	0,048
6,9500	0,047
6,9750	0,050
7,0000	0,048
7,0250	0,048
7,0500	0,050
7,0750	0,049
7,1000	0,048
7,1250	0,051
7,1500	0,048
7,1750	0,050
7,2000	0,049
7,2250	0,049
7,2500	0,049
7,2750	0,050
7,3000	0,050
7,3250	0,049
7,3500	0,051
7,3750	0,053
7,4000	0,053
7,4250	0,053
7,4500	0,051
7,4750	0,057
7,5000	0,055
7,5250	0,054
7,5500	0,052
7,5750	0,055
7,6000	0,055
7,6250	0,055
7,6500	0,052
7,6750	0,057
7,7000	0,056
7,7250	0,058
7,7500	0,056
7,7750	0,056
7,8000	0,057
7,8250	0,057
7,8500	0,055
7,8750	0,059
7,9000	0,056
7,9250	0,059
7,9500	0,059
7,9750	0,059
8,0000	0,058
8,0250	0,057
8,0500	0,057
8,0750	0,060
8,1000	0,057
8,1250	0,059
8,1500	0,057
8,1750	0,061
8,2000	0,059
8,2250	0,060
8,2500	0,060
8,2750	0,061
8,3000	0,060
8,3250	0,063
8,3500	0,060
8,3750	0,063
8,4000	0,062
8,4250	0,062
8,4500	0,062
8,4750	0,063
8,5000	0,063
8,5250	0,065
8,5500	0,064
8,5750	0,065
8,6000	0,063
8,6250	0,063
8,6500	0,064
8,6750	0,065
8,7000	0,063
8,7250	0,067
8,7500	0,064
8,7750	0,068
8,8000	0,066
8,8250	0,067
8,8500	0,068
8,8750	0,069
8,9000	0,067
8,9250	0,068
8,9500	0,065
8,9750	0,068
9,0000	0,068
9,0250	0,068
9,0500	0,068
9,0750	0,071
9,1000	0,068
9,1250	0,070
9,1500	0,068
9,1750	0,071
9,2000	0,071
9,2250	0,070
9,2500	0,068
9,2750	0,073
9,3000	0,071
9,3250	0,071
9,3500	0,073
9,3750	0,073
9,4000	0,070
9,4250	0,075
9,4500	0,074
9,4750	0,075
9,5000	0,075
9,5250	0,076
9,5500	0,073
9,5750	0,079
9,6000	0,076
9,6250	0,078
9,6500	0,076
9,6750	0,078
9,7000	0,075
9,7250	0,078
9,7500	0,074
9,7750	0,078
9,8000	0,077
9,8250	0,079
9,8500	0,076
9,8750	0,080
9,9000	0,080
9,9250	0,079
9,9500	0,078
9,9750	0,082
10,0000	0,082
10,0250	0,079
10,0500	0,079
10,0750	0,082
10,1000	0,079
10,1250	0,082
10,1500	0,082
10,1750	0,082
10,2000	0,081
10,2250	0,083
10,2500	0,082
10,2750	0,082
10,3000	0,082
10,3250	0,084
10,3500	0,082
10,3750	0,085
10,4000	0,084
10,4250	0,082
10,4500	0,083
10,4750	0,085
10,5000	0,084
10,5250	0,085
10,5500	0,085
10,5750	0,087
10,6000	0,084
10,6250	0,089
10,6500	0,087
10,6750	0,087
10,7000	0,084
10,7250	0,089
10,7500	0,087
10,7750	0,087
10,8000	0,086
10,8250	0,089
10,8500	0,087
10,8750	0,087
10,9000	0,087
10,9250	0,089
10,9500	0,087
10,9750	0,090
11,0000	0,089
11,0250	0,090
11,0500	0,088
11,0750	0,092
11,1000	0,090
11,1250	0,092
11,1500	0,089
11,1750	0,093
11,2000	0,091
11,2250	0,093
11,2500	0,093
11,2750	0,095
11,3000	0,093
11,3250	0,095
11,3500	0,093
11,3750	0,093
11,4000	0,092
11,4250	0,097
11,4500	0,093
11,4750	0,095
11,5000	0,095
11,5250	0,099
11,5500	0,094
11,5750	0,097
11,6000	0,096
11,6250	0,098
11,6500	0,096
11,6750	0,098
11,7000	0,097
11,7250	0,098
11,7500	0,095
11,7750	0,099
11,8000	0,098
11,8250	0,100
11,8500	0,096
11,8750	0,100
11,9000	0,099
11,9250	0,101
11,9500	0,099
11,9750	0,099
12,0000	0,099
12,0250	0,099
12,0500	0,100
12,0750	0,098
12,1000	0,101
12,1250	0,099
12,1500	0,100
12,1750	0,098
12,2000	0,101
12,2250	0,103
12,2500	0,103
12,2750	0,100
12,3000	0,103
12,3250	0,102
12,3500	0,103
12,3750	0,103
12,4000	0,104
12,4250	0,102
12,4500	0,103
12,4750	0,103
12,5000	0,106
12,5250	0,104
12,5500	0,104
12,5750	0,104
12,6000	0,106
12,6250	0,104
12,6500	0,104
12,6750	0,104
12,7000	0,107
12,7250	0,105
12,7500	0,106
12,7750	0,105
12,8000	0,108
12,8250	0,107
12,8500	0,107
12,8750	0,109
12,9000	0,109
12,9250	0,107
12,9500	0,107
12,9750	0,107
13,0000	0,112
13,0250	0,109
13,0500	0,110
13,0750	0,110
13,1000	0,112
13,1250	0,112
13,1500	0,111
13,1750	0,110
13,2000	0,112
13,2250	0,114
13,2500	0,114
13,2750	0,113
13,3000	0,112
13,3250	0,113
13,3500	0,115
13,3750	0,113
13,4000	0,114
13,4250	0,114
13,4500	0,114
13,4750	0,114
13,5000	0,118
13,5250	0,115
13,5500	0,117
13,5750	0,117
13,6000	0,118
13,6250	0,115
13,6500	0,118
13,6750	0,116
13,7000	0,119
13,7250	0,117
13,7500	0,117
13,7750	0,116
13,8000	0,122
13,8250	0,119
13,8500	0,119
13,8750	0,118
13,9000	0,120
13,9250	0,119
13,9500	0,119
13,9750	0,118
14,0000	0,121
14,0250	0,120
14,0500	0,121
14,0750	0,120
14,1000	0,122
14,1250	0,122
14,1500	0,123
14,1750	0,121
14,2000	0,122
14,2250	0,123
14,2500	0,123
14,2750	0,121
14,3000	0,123
14,3250	0,124
14,3500	0,123
14,3750	0,123
14,4000	0,126
14,4250	0,125
14,4500	0,126
14,4750	0,124
14,5000	0,128
14,5250	0,126
14,5500	0,126
14,5750	0,127
14,6000	0,128
14,6250	0,126
14,6500	0,127
14,6750	0,127
14,7000	0,127
14,7250	0,126
14,7500	0,128
14,7750	0,127
14,8000	0,128
14,8250	0,127
14,8500	0,129
14,8750	0,130
14,9000	0,129
14,9250	0,128
14,9500	0,128
14,9750	0,128
15,0000	0,130
15,0250	0,128
15,0500	0,132
15,0750	0,131
15,1000	0,132
15,1250	0,131
15,1500	0,132
15,1750	0,132
15,2000	0,133
15,2250	0,132
15,2500	0,134
15,2750	0,132
15,3000	0,132
15,3250	0,132
15,3500	0,136
15,3750	0,134
15,4000	0,135
15,4250	0,136
15,4500	0,136
15,4750	0,136
15,5000	0,135
15,5250	0,136
15,5500	0,136
15,5750	0,134
15,6000	0,137
15,6250	0,137
15,6500	0,137
15,6750	0,137
15,7000	0,139
15,7250	0,136
15,7500	0,139
15,7750	0,138
15,8000	0,142
15,8250	0,139
15,8500	0,139
15,8750	0,139
15,9000	0,140
15,9250	0,138
15,9500	0,140
15,9750	0,139
16,0000	0,142
16,0250	0,141
16,0500	0,142
16,0750	0,140
16,1000	0,143
16,1250	0,143
16,1500	0,143
16,1750	0,141
16,2000	0,143
16,2250	0,143
16,2500	0,143
16,2750	0,143
16,3000	0,146
16,3250	0,143
16,3500	0,145
16,3750	0,145
16,4000	0,146
16,4250	0,145
16,4500	0,146
16,4750	0,145
16,5000	0,147
16,5250	0,146
16,5500	0,146
16,5750	0,145
16,6000	0,148
16,6250	0,148
16,6500	0,147
16,6750	0,146
16,7000	0,150
16,7250	0,148
16,7500	0,148
16,7750	0,148
16,8000	0,151
16,8250	0,150
16,8500	0,150
16,8750	0,148
16,9000	0,149
16,9250	0,148
16,9500	0,154
16,9750	0,151
17,0000	0,153
17,0250	0,152
17,0500	0,153
17,0750	0,152
17,1000	0,155
17,1250	0,154
17,1500	0,156
17,1750	0,155
17,2000	0,156
17,2250	0,155
17,2500	0,156
17,2750	0,156
17,3000	0,157
17,3250	0,154
17,3500	0,156
17,3750	0,156
17,4000	0,157
17,4250	0,156
17,4500	0,158
17,4750	0,157
17,5000	0,158
17,5250	0,157
17,5500	0,157
17,5750	0,156
17,6000	0,159
17,6250	0,159
17,6500	0,157
17,6750	0,155
17,7000	0,162
17,7250	0,161
17,7500	0,161
17,7750	0,161
17,8000	0,161
17,8250	0,159
17,8500	0,162
17,8750	0,161
17,9000	0,160
17,9250	0,160
17,9500	0,162
17,9750	0,161
18,0000	0,163
18,0250	0,162
18,0500	0,163
18,0750	0,161
18,1000	0,164
18,1250	0,163
18,1500	0,165
18,1750	0,163
18,2000	0,167
18,2250	0,165
18,2500	0,167
18,2750	0,165
18,3000	0,165
18,3250	0,165
18,3500	0,165
18,3750	0,163
18,4000	0,168
18,4250	0,166
18,4500	0,164
18,4750	0,166
18,5000	0,165
18,5250	0,165
18,5500	0,167
18,5750	0,170
18,6000	0,167
18,6250	0,167
18,6500	0,167
18,6750	0,169
18,7000	0,168
18,7250	0,170
18,7500	0,167
18,7750	0,170
18,8000	0,169
18,8250	0,168
18,8500	0,170
18,8750	0,171
18,9000	0,169
18,9250	0,171
18,9500	0,172
18,9750	0,172
19,0000	0,169
19,0250	0,173
19,0500	0,172
19,0750	0,172
19,1000	0,172
19,1250	0,172
19,1500	0,171
19,1750	0,173
19,2000	0,175
19,2250	0,173
19,2500	0,171
19,2750	0,175
19,3000	0,173
19,3250	0,174
19,3500	0,176
19,3750	0,175
19,4000	0,173
19,4250	0,177
19,4500	0,176
19,4750	0,176
19,5000	0,176
19,5250	0,178
19,5500	0,176
19,5750	0,178
19,6000	0,176
19,6250	0,181
19,6500	0,178
19,6750	0,179
19,7000	0,176
19,7250	0,179
19,7500	0,178
19,7750	0,179
19,8000	0,178
19,8250	0,179
19,8500	0,179
19,8750	0,180
19,9000	0,179
19,9250	0,181
19,9500	0,181
19,9750	0,180
20,0000	0,180
20,0250	0,185
20,0500	0,183
20,0750	0,183
20,1000	0,183
20,1250	0,183
20,1500	0,182
20,1750	0,184
20,2000	0,183
20,2250	0,185
20,2500	0,185
20,2750	0,183
20,3000	0,181
20,3250	0,186
20,3500	0,186
20,3750	0,186
20,4000	0,185
20,4250	0,187
20,4500	0,186
20,4750	0,184
20,5000	0,187
20,5250	0,188
20,5500	0,186
20,5750	0,187
20,6000	0,186
20,6250	0,188
20,6500	0,187
20,6750	0,190
20,7000	0,189
20,7250	0,189
20,7500	0,190
20,7750	0,191
20,8000	0,187
20,8250	0,192
20,8500	0,191
20,8750	0,190
20,9000	0,189
20,9250	0,192
20,9500	0,191
20,9750	0,192
21,0000	0,192
21,0250	0,192
21,0500	0,190
21,0750	0,193
21,1000	0,193
21,1250	0,195
21,1500	0,195
21,1750	0,196
21,2000	0,194
21,2250	0,195
21,2500	0,193
21,2750	0,195
21,3000	0,195
21,3250	0,196
21,3500	0,195
21,3750	0,198
21,4000	0,197
21,4250	0,196
21,4500	0,197
21,4750	0,198
21,5000	0,195
21,5250	0,198
21,5500	0,198
21,5750	0,199
21,6000	0,197
21,6250	0,200
21,6500	0,200
21,6750	0,199
21,7000	0,198
21,7250	0,201
21,7500	0,200
21,7750	0,200
21,8000	0,199
21,8250	0,203
21,8500	0,201
21,8750	0,201
21,9000	0,203
21,9250	0,203
21,9500	0,200
21,9750	0,201
22,0000	0,200
22,0250	0,204
22,0500	0,201
22,0750	0,205
22,1000	0,204
22,1250	0,203
22,1500	0,203
22,1750	0,205
22,2000	0,204
22,2250	0,207
22,2500	0,206
22,2750	0,207
22,3000	0,204
22,3250	0,207
22,3500	0,204
22,3750	0,205
22,4000	0,205
22,4250	0,208
22,4500	0,206
22,4750	0,206
22,5000	0,206
22,5250	0,209
22,5500	0,208
22,5750	0,206
22,6000	0,207
22,6250	0,211
22,6500	0,209
22,6750	0,209
22,7000	0,209
22,7250	0,211
22,7500	0,209
22,7750	0,209
22,8000	0,209
22,8250	0,212
22,8500	0,209
22,8750	0,212
22,9000	0,211
22,9250	0,214
22,9500	0,212
22,9750	0,214
23,0000	0,212
23,0250	0,214
23,0500	0,215
23,0750	0,214
23,1000	0,212
23,1250	0,215
23,1500	0,215
23,1750	0,214
23,2000	0,214
23,2250	0,215
23,2500	0,215
23,2750	0,216
23,3000	0,214
23,3250	0,219
23,3500	0,217
23,3750	0,217
23,4000	0,216
23,4250	0,219
23,4500	0,219
23,4750	0,219
23,5000	0,217
23,5250	0,220
23,5500	0,217
23,5750	0,220
23,6000	0,219
23,6250	0,220
23,6500	0,217
23,6750	0,219
23,7000	0,219
23,7250	0,222
23,7500	0,220
23,7750	0,222
23,8000	0,222
23,8250	0,223
23,8500	0,220
23,8750	0,222
23,9000	0,220
23,9250	0,225
23,9500	0,220
23,9750	0,224
24,0000	0,223
24,0250	0,225
24,0500	0,223
24,0750	0,225
24,1000	0,224
24,1250	0,226
24,1500	0,225
24,1750	0,225
24,2000	0,225
24,2250	0,228
24,2500	0,224
24,2750	0,227
24,3000	0,226
24,3250	0,228
24,3500	0,227
24,3750	0,228
24,4000	0,226
24,4250	0,228
24,4500	0,225
24,4750	0,229
24,5000	0,229
24,5250	0,230
24,5500	0,231
24,5750	0,231
24,6000	0,228
24,6250	0,231
24,6500	0,231
24,6750	0,231
24,7000	0,229
24,7250	0,231
24,7500	0,231
24,7750	0,233
24,8000	0,229
24,8250	0,233
24,8500	0,233
24,8750	0,234
24,9000	0,233
24,9250	0,231
24,9500	0,236
24,9750	0,234
25,0000	0,234
25,0250	0,232
25,0500	0,235
25,0750	0,233
25,1000	0,233
25,1250	0,233
25,1500	0,236
25,1750	0,235
25,2000	0,235
25,2250	0,234
25,2500	0,237
25,2750	0,236
25,3000	0,239
25,3250	0,236
25,3500	0,236
25,3750	0,236
25,4000	0,239
25,4250	0,235
25,4500	0,240
25,4750	0,240
25,5000	0,239
25,5250	0,237
25,5500	0,238
25,5750	0,239
25,6000	0,240
25,6250	0,239
25,6500	0,240
25,6750	0,240
25,7000	0,240
25,7250	0,239
25,7500	0,242
25,7750	0,242
25,8000	0,241
25,8250	0,239
25,8500	0,244
25,8750	0,243
25,9000	0,244
25,9250	0,239
25,9500	0,240
25,9750	0,242
26,0000	0,245
26,0250	0,243
26,0500	0,242
26,0750	0,244
26,1000	0,244
26,1250	0,244
26,1500	0,246
26,1750	0,247
26,2000	0,248
26,2250	0,245
26,2500	0,245
26,2750	0,246
26,3000	0,246
26,3250	0,245
26,3500	0,248
26,3750	0,247
26,4000	0,249
26,4250	0,248
26,4500	0,247
26,4750	0,247
26,5000	0,250
26,5250	0,248
26,5500	0,248
26,5750	0,250
26,6000	0,250
26,6250	0,248
26,6500	0,250
26,6750	0,250
26,7000	0,253
26,7250	0,249
26,7500	0,251
26,7750	0,252
26,8000	0,251
26,8250	0,248
26,8500	0,253
26,8750	0,254
26,9000	0,252
26,9250	0,250
26,9500	0,255
26,9750	0,253
27,0000	0,254
27,0250	0,253
27,0500	0,255
27,0750	0,252
27,1000	0,255
27,1250	0,253
27,1500	0,258
27,1750	0,255
27,2000	0,255
27,2250	0,255
27,2500	0,258
27,2750	0,256
27,3000	0,257
27,3250	0,255
27,3500	0,258
27,3750	0,256
27,4000	0,259
27,4250	0,258
27,4500	0,258
27,4750	0,258
27,5000	0,261
27,5250	0,259
27,5500	0,259
27,5750	0,259
27,6000	0,261
27,6250	0,259
27,6500	0,259
27,6750	0,261
27,7000	0,261
27,7250	0,260
27,7500	0,262
27,7750	0,261
27,8000	0,264
27,8250	0,262
27,8500	0,264
27,8750	0,264
27,9000	0,265
27,9250	0,264
27,9500	0,262
27,9750	0,262
28,0000	0,266
28,0250	0,263
28,0500	0,263
28,0750	0,264
28,1000	0,266
28,1250	0,263
28,1500	0,266
28,1750	0,265
28,2000	0,267
28,2250	0,264
28,2500	0,266
28,2750	0,266
28,3000	0,269
28,3250	0,267
28,3500	0,270
28,3750	0,268
28,4000	0,269
28,4250	0,267
28,4500	0,271
28,4750	0,269
28,5000	0,267
28,5250	0,267
28,5500	0,270
28,5750	0,268
28,6000	0,272
28,6250	0,271
28,6500	0,272
28,6750	0,270
28,7000	0,273
28,7250	0,270
28,7500	0,273
28,7750	0,272
28,8000	0,275
28,8250	0,273
28,8500	0,274
28,8750	0,272
28,9000	0,276
28,9250	0,273
28,9500	0,274
28,9750	0,273
29,0000	0,278
29,0250	0,273
29,0500	0,275
29,0750	0,275
29,1000	0,277
29,1250	0,274
29,1500	0,278
29,1750	0,276
29,2000	0,278
29,2250	0,276
29,2500	0,280
29,2750	0,278
29,3000	0,277
29,3250	0,276
29,3500	0,279
29,3750	0,276
29,4000	0,279
29,4250	0,277
29,4500	0,280
29,4750	0,279
29,5000	0,279
29,5250	0,279
29,5500	0,281
29,5750	0,281
29,6000	0,281
29,6250	0,280
29,6500	0,281
29,6750	0,281
29,7000	0,281
29,7250	0,280
29,7500	0,283
29,7750	0,281
29,8000	0,283
29,8250	0,282
29,8500	0,285
29,8750	0,285
29,9000	0,285
29,9250	0,283
29,9500	0,285
29,9750	0,284
30,0000	0,284
30,0250	0,283
30,0500	0,285
30,0750	0,284
30,1000	0,286
30,1250	0,284
30,1500	0,287
30,1750	0,286
30,2000	0,286
30,2250	0,284
30,2500	0,289
30,2750	0,286
30,3000	0,289
30,3250	0,286
30,3500	0,289
30,3750	0,288
30,4000	0,290
30,4250	0,288
30,4500	0,291
30,4750	0,289
30,5000	0,290
30,5250	0,289
30,5500	0,294
30,5750	0,292
30,6000	0,292
30,6250	0,291
30,6500	0,293
30,6750	0,293
30,7000	0,292
30,7250	0,290
30,7500	0,295
30,7750	0,294
30,8000	0,293
30,8250	0,292
30,8500	0,297
30,8750	0,294
30,9000	0,293
30,9250	0,292
30,9500	0,296
30,9750	0,295
31,0000	0,295
31,0250	0,294
31,0500	0,296
31,0750	0,294
31,1000	0,295
31,1250	0,294
31,1500	0,298
31,1750	0,296
31,2000	0,298
31,2250	0,297
31,2500	0,298
31,2750	0,298
31,3000	0,299
31,3250	0,298
31,3500	0,297
31,3750	0,297
31,4000	0,294
31,4250	0,043
31,4500	0,042
31,4750	0,040
31,5000	0,039
31,5250	0,040
31,5500	0,040
31,5750	0,040
31,6000	0,042
31,6250	0,042
31,6500	0,040
31,6750	0,040
31,7000	0,039
31,7250	0,044
31,7500	0,040
31,7750	0,040
31,8000	0,040
31,8250	0,043
31,8500	0,041
31,8750	0,043
31,9000	0,042
31,9250	0,041
31,9500	0,038
31,9750	0,041
32,0000	0,040
32,0250	0,041
32,0500	0,039
32,0750	0,043
32,1000	0,041
32,1250	0,042
32,1500	0,040
32,1750	0,042
32,2000	0,040
32,2250	0,041
32,2500	0,041
32,2750	0,042
32,3000	0,040
32,3250	0,042
32,3500	0,040
32,3750	0,042
32,4000	0,040
32,4250	0,042
32,4500	0,042
32,4750	0,041
32,5000	0,039
32,5250	0,042
32,5500	0,040
32,5750	0,043
32,6000	0,040
32,6250	0,041
32,6500	0,042
32,6750	0,043
32,7000	0,041
32,7250	0,043
32,7500	0,041
32,7750	0,041
32,8000	0,038
32,8250	0,042
32,8500	0,042
32,8750	0,042
32,9000	0,040
32,9250	0,043
32,9500	0,042
32,9750	0,043
33,0000	0,040
33,0250	0,045
33,0500	0,043
33,0750	0,043
33,1000	0,040
33,1250	0,042
33,1500	0,039
33,1750	0,042
33,2000	0,039
33,2250	0,042
33,2500	0,040
33,2750	0,043
33,3000	0,040
33,3250	0,043
33,3500	0,042
33,3750	0,042
33,4000	0,038
33,4250	0,043
33,4500	0,042
33,4750	0,042
33,5000	0,038
33,5250	0,042
33,5500	0,040
33,5750	0,042
33,6000	0,038
33,6250	0,042
33,6500	0,042
33,6750	0,042
33,7000	0,040
33,7250	0,041
33,7500	0,042
33,7750	0,042
33,8000	0,040
33,8250	0,041
33,8500	0,040
33,8750	0,042
33,9000	0,038
33,9250	0,043
33,9500	0,041
33,9750	0,044
34,0000	0,041
34,0250	0,043
34,0500	0,042
34,0750	0,042
34,1000	0,040
34,1250	0,045
34,1500	0,042
34,1750	0,042
34,2000	0,040
34,2250	0,043
34,2500	0,039
34,2750	0,043
34,3000	0,042
34,3250	0,043
34,3500	0,040
34,3750	0,042
34,4000	0,042
34,4250	0,043
34,4500	0,039
34,4750	0,042
34,5000	0,040
34,5250	0,042
34,5500	0,040
34,5750	0,043
34,6000	0,041
34,6250	0,043
34,6500	0,042
34,6750	0,043
34,7000	0,040
34,7250	0,042
34,7500	0,040
34,7750	0,042
34,8000	0,040
34,8250	0,045
34,8500	0,043
34,8750	0,042
34,9000	0,042
34,9250	0,044
34,9500	0,041
34,9750	0,043
35,0000	0,043
35,0250	0,042
35,0500	0,039
35,0750	0,040
35,1000	0,040
35,1250	0,043
35,1500	0,042
35,1750	0,045
35,2000	0,042
35,2250	0,041
35,2500	0,042
35,2750	0,044
35,3000	0,041
35,3250	0,042
35,3500	0,041
35,3750	0,043
35,4000	0,039
35,4250	0,043
35,4500	0,042
35,4750	0,041
35,5000	0,040
35,5250	0,043
35,5500	0,040
35,5750	0,042
35,6000	0,042
35,6250	0,043
35,6500	0,041
35,6750	0,042
35,7000	0,040
35,7250	0,042
35,7500	0,040
35,7750	0,043
35,8000	0,040
35,8250	0,041
35,8500	0,042
35,8750	0,043
35,9000	0,041
35,9250	0,043
35,9500	0,042
35,9750	0,042
36,0000	0,041
36,0250	0,045
36,0500	0,041
36,0750	0,042
36,1000	0,041
36,1250	0,043
36,1500	0,040
36,1750	0,045
36,2000	0,043
36,2250	0,042
36,2500	0,041
36,2750	0,043
36,3000	0,043
36,3250	0,042
36,3500	0,040
36,3750	0,042
36,4000	0,041
36,4250	0,042
36,4500	0,040
36,4750	0,043
36,5000	0,041
36,5250	0,042
36,5500	0,041
36,5750	0,044
36,6000	0,041
36,6250	0,043
36,6500	0,042
36,6750	0,042
36,7000	0,041
36,7250	0,043
36,7500	0,039
36,7750	0,044
36,8000	0,043
36,8250	0,043
36,8500	0,041
36,8750	0,042
36,9000	0,040
36,9250	0,044
36,9500	0,043
36,9750	0,041
37,0000	0,042
37,0250	0,043
37,0500	0,040
37,0750	0,040
37,1000	0,040
37,1250	0,042
37,1500	0,040
37,1750	0,044
37,2000	0,040
37,2250	0,045
37,2500	0,041
37,2750	0,040
37,3000	0,042
37,3250	0,042
37,3500	0,040
37,3750	0,040
37,4000	0,042
37,4250	0,040
37,4500	0,039
37,4750	0,040
37,5000	0,043
37,5250	0,041
37,5500	0,040
37,5750	0,039
37,6000	0,042
37,6250	0,042
37,6500	0,042
37,6750	0,040
37,7000	0,042
37,7250	0,039
37,7500	0,040
37,7750	0,040
37,8000	0,041
37,8250	0,040
37,8500	0,041
37,8750	0,039
37,9000	0,042
37,9250	0,042
37,9500	0,042
37,9750	0,041
38,0000	0,045
38,0250	0,041
38,0500	0,042
38,0750	0,040
38,1000	0,040
38,1250	0,040
38,1500	0,040
38,1750	0,038
38,2000	0,041
38,2250	0,040
38,2500	0,037
38,2750	0,040
38,3000	0,040
38,3250	0,039
38,3500	0,040
38,3750	0,040
38,4000	0,040
38,4250	0,040
38,4500	0,042
38,4750	0,039
38,5000	0,040
38,5250	0,039
38,5500	0,040
38,5750	0,041
38,6000	0,042
38,6250	0,040
38,6500	0,041
38,6750	0,039
38,7000	0,040
38,7250	0,040
38,7500	0,042
38,7750	0,039
38,8000	0,043
38,8250	0,042
38,8500	0,042
38,8750	0,040
38,9000	0,041
38,9250	0,040
38,9500	0,042
38,9750	0,040
39,0000	0,041
39,0250	0,040
39,0500	0,042
39,0750	0,040
39,1000	0,042
39,1250	0,042
39,1500	0,040
39,1750	0,038
39,2000	0,043
39,2250	0,040
39,2500	0,042
39,2750	0,042
39,3000	0,042
39,3250	0,039
39,3500	0,040
39,3750	0,040
39,4000	0,041
39,4250	0,040
